# TOF 2D monitor output
# 
#     counts=       462
#     total intensity=1.4717e+09 +/-        nan neutron counts
# 
#                         intensity +- stdv [n/cm^2/s] 
# x [m]       y [m]       time [ms]
 #                             0.0000               0.0100               0.0200               0.0300               0.0400               0.0500               0.0600               0.0700               0.0800               0.0900               0.1000               0.1100               0.1200               0.1300               0.1400               0.1500               0.1600               0.1700               0.1800               0.1900               0.2000               0.2100               0.2200               0.2300               0.2400               0.2500               0.2600               0.2700               0.2800               0.2900               0.3000               0.3100               0.3200               0.3300               0.3400               0.3500               0.3600               0.3700               0.3800               0.3900               0.4000               0.4100               0.4200               0.4300               0.4400               0.4500               0.4600               0.4700               0.4800               0.4900               0.5000               0.5100               0.5200               0.5300               0.5400               0.5500               0.5600               0.5700               0.5800               0.5900               0.6000               0.6100               0.6200               0.6300               0.6400               0.6500               0.6600               0.6700               0.6800               0.6900               0.7000               0.7100               0.7200               0.7300               0.7400               0.7500               0.7600               0.7700               0.7800               0.7900               0.8000               0.8100               0.8200               0.8300               0.8400               0.8500               0.8600               0.8700               0.8800               0.8900               0.9000               0.9100               0.9200               0.9300               0.9400               0.9500               0.9600               0.9700               0.9800               0.9900               1.0000         
#
      0.0000      0.0000  0.0000e+00  0.00000  0.0000e+00  0.00000  0.0000e+00  0.00000  0.0000e+00  0.00000  0.0000e+00  0.00000  0.0000e+00  0.00000  0.0000e+00  0.00000  0.0000e+00  0.00000  0.0000e+00  0.00000  0.0000e+00  0.00000  0.0000e+00  0.00000  0.0000e+00  0.00000  0.0000e+00  0.00000  0.0000e+00  0.00000  9.3645e+08  0.00000  1.8746e+09  0.00000  1.7570e+09  0.00000  1.4688e+09  0.00000  5.8523e+08  0.00000  8.5130e+08  0.00000  2.3358e+09  0.00000  4.1098e+08  0.00000  5.9527e+08  0.00000  1.7471e+09  0.00000  2.6664e+09  0.00000  7.8107e+07  0.00000  8.9370e+08  0.00000  1.9389e+07  0.00000  2.8681e+09  0.00000  9.9761e+08  0.00000  8.1477e+08  0.00000  4.8094e+08  0.00000  6.1543e+08  0.00000  7.0570e+07  0.00000  7.1626e+08  0.00000  8.4353e+08  0.00000  6.1738e+08  0.00000  6.9605e+08  0.00000  1.1673e+09  0.00000  1.0157e+09  0.00000  1.0735e+09  0.00000  4.5742e+08  0.00000  3.6249e+08  0.00000  7.3665e+08  0.00000  5.6273e+08  0.00000  2.3590e+08  0.00000  1.5740e+09  0.00000  2.1032e+08  0.00000  9.6511e+07  0.00000  1.7884e+09  0.00000  9.1228e+08  0.00000  3.1915e+08  0.00000  8.7792e+08  0.00000  1.3932e+08  0.00000  6.8555e+08  0.00000  1.2507e+08  0.00000  2.4009e+08  0.00000  1.1458e+08  0.00000  8.5577e+08  0.00000  4.6143e+08  0.00000  3.3443e+07  0.00000  5.3360e+07  0.00000  5.2609e+08  0.00000  4.6254e+08  0.00000  3.2030e+08  0.00000  1.2228e+08  0.00000  6.0022e+08  0.00000  8.3525e+08  0.00000  3.5192e+08  0.00000  1.3327e+09  0.00000  9.0205e+08  0.00000  3.5695e+08  0.00000  1.7671e+08  0.00000  3.8935e+08  0.00000  1.7391e+08  0.00000  3.4894e+07  0.00000  8.8827e+08  0.00000  4.6755e+06  0.00000  1.6093e+08  0.00000  4.8536e+08  0.00000  2.3097e+08  0.00000  5.4195e+07  0.00000  1.0277e+08  0.00000  0.0000e+00  0.00000  5.4705e+07  0.00000  1.3539e+08  0.00000  1.1653e+08  0.00000  9.3610e+07  0.00000  0.0000e+00  0.00000  1.5020e+08  0.00000  4.4398e+08  0.00000  2.4357e+08  0.00000  1.1196e+08  0.00000  1.6931e+08  0.00000  6.8196e+06  0.00000  2.0034e+08  0.00000  1.9295e+08  0.00000  1.0541e+08  0.00000  6.0912e+07  0.00000  7.9087e+06  0.00000

