# TOF 2D monitor output
# 
#     counts=       962
#     total intensity=8.2024e+08 +/-        nan neutron counts
# 
#                         intensity +- stdv [n/cm^2/AA] 
# x [m]       y [m]       wavelength [AA]
 #                             0.0000               0.1000               0.2000               0.3000               0.4000               0.5000               0.6000               0.7000               0.8000               0.9000               1.0000               1.1000               1.2000               1.3000               1.4000               1.5000               1.6000               1.7000               1.8000               1.9000               2.0000               2.1000               2.2000               2.3000               2.4000               2.5000               2.6000               2.7000               2.8000               2.9000               3.0000               3.1000               3.2000               3.3000               3.4000               3.5000               3.6000               3.7000               3.8000               3.9000               4.0000               4.1000               4.2000               4.3000               4.4000               4.5000               4.6000               4.7000               4.8000               4.9000               5.0000               5.1000               5.2000               5.3000               5.4000               5.5000               5.6000               5.7000               5.8000               5.9000               6.0000               6.1000               6.2000               6.3000               6.4000               6.5000               6.6000               6.7000               6.8000               6.9000               7.0000               7.1000               7.2000               7.3000               7.4000               7.5000               7.6000               7.7000               7.8000               7.9000               8.0000               8.1000               8.2000               8.3000               8.4000               8.5000               8.6000               8.7000               8.8000               8.9000               9.0000               9.1000               9.2000               9.3000               9.4000               9.5000               9.6000               9.7000               9.8000               9.9000              10.0000         
#
      0.0000      0.0000  0.0000e+00  0.00000  0.0000e+00  0.00000  5.6069e+04  0.00000  4.5760e+05  0.00000  4.3880e+05  0.00000  3.0476e+05  0.00000  2.2435e+05  0.00000  8.0047e+04  0.00000  2.6823e+05  0.00000  1.4325e+05  0.00000  1.1646e+05  0.00000  1.7488e+05  0.00000  1.0437e+05  0.00000  4.7242e+04  0.00000  3.0701e+04  0.00000  8.2495e+04  0.00000  4.2394e+04  0.00000  5.7826e+04  0.00000  1.0539e+04  0.00000  3.8557e+02  0.01255  2.0980e+04  0.00000  2.1933e+04  0.00000  6.3185e+03  0.00000  2.0585e+04  0.00000  5.8998e+03  0.00000  1.5811e+04  0.00000  6.5220e+03  0.00000  6.6536e+03  0.00000  5.6963e+03  0.00000  1.1350e+03  0.00000  2.1193e+02  0.01382  2.4519e+03  0.00000  1.0189e+03  0.00000  1.0051e+03  0.00000  1.4045e+03  0.00000  2.7899e+02  0.00000  4.4088e+02  0.00000  1.8312e+02  0.00000  1.0884e+03  0.00000  3.0080e+03  0.00000  1.1225e+03  0.00000  4.4583e+02  0.00000  1.3308e+01  0.03901  8.2321e+01  0.00000  3.1028e+02  0.00000  1.6859e+02  0.00000  2.8181e+02  0.00000  6.3604e+01  0.00000  3.9152e+02  0.00000  9.1646e+01  0.00000  -1.0120e-02  0.00000  1.1604e+02  0.00000  1.2384e+01  0.02334  1.5195e+01  0.00000  1.2085e+02  0.00000  7.4174e+01  0.02336  6.3378e+01  0.00000  -3.3733e-03  0.00000  2.7233e+01  0.00000  2.8187e+01  0.00000  2.2811e+01  0.02979  9.7987e+01  0.00000  4.7915e+01  0.02373  -3.3733e-03  0.00000  4.9426e+01  0.02024  -1.6866e-02  0.00000  2.5663e+01  0.01621  -6.7465e-03  0.00000  -6.7465e-03  0.00000  1.4343e+01  0.00000  1.3419e+00  0.07099  1.4750e+01  0.03705  3.7636e+01  0.00000  2.3932e+01  0.00000  1.9258e+01  0.00000  9.2435e-01  0.14851  -6.7465e-03  0.00000  2.1540e-01  0.36082  1.4410e+01  0.00000  -3.3733e-03  0.00000  -3.3733e-03  0.00000  0.0000e+00  0.00000  1.0385e+00  0.00000  -3.3733e-03  0.00000  6.9505e+00  0.00000  8.9513e+00  0.00000  8.7992e-01  0.00000  3.5276e-01  0.00000  0.0000e+00  0.00000  -3.3733e-03  0.00000  1.7913e+01  0.00000  0.0000e+00  0.00000  3.5421e-01  0.00000  4.2105e+00  0.00000  1.4553e+00  0.06817  -6.7465e-03  0.00000  -1.3493e-02  0.00000  2.6086e+00  0.00000  5.5465e-01  0.00000  -3.3733e-03  0.00000

