# TOF 2D monitor output
# 
#     counts=       966
#     total intensity=1.4930e+09 +/-        nan neutron counts
# 
#                         intensity +- stdv [n/cm^2/AA] 
# x [m]       y [m]       wavelength [AA]
 #                             0.0000               0.1000               0.2000               0.3000               0.4000               0.5000               0.6000               0.7000               0.8000               0.9000               1.0000               1.1000               1.2000               1.3000               1.4000               1.5000               1.6000               1.7000               1.8000               1.9000               2.0000               2.1000               2.2000               2.3000               2.4000               2.5000               2.6000               2.7000               2.8000               2.9000               3.0000               3.1000               3.2000               3.3000               3.4000               3.5000               3.6000               3.7000               3.8000               3.9000               4.0000               4.1000               4.2000               4.3000               4.4000               4.5000               4.6000               4.7000               4.8000               4.9000               5.0000               5.1000               5.2000               5.3000               5.4000               5.5000               5.6000               5.7000               5.8000               5.9000               6.0000               6.1000               6.2000               6.3000               6.4000               6.5000               6.6000               6.7000               6.8000               6.9000               7.0000               7.1000               7.2000               7.3000               7.4000               7.5000               7.6000               7.7000               7.8000               7.9000               8.0000               8.1000               8.2000               8.3000               8.4000               8.5000               8.6000               8.7000               8.8000               8.9000               9.0000               9.1000               9.2000               9.3000               9.4000               9.5000               9.6000               9.7000               9.8000               9.9000              10.0000         
#
      0.0000      0.0000  0.0000e+00  0.00000  0.0000e+00  0.00000  1.9438e+05  0.00000  1.2147e+06  0.00000  4.8160e+05  0.00000  2.5608e+05  0.00000  3.8411e+05  0.00000  3.5483e+05  0.00000  2.0436e+05  0.00000  3.3746e+05  0.00000  2.2169e+05  0.00000  3.2132e+05  0.00000  1.1803e+05  0.00000  1.5701e+05  0.00000  1.2895e+05  0.00000  1.3114e+05  0.00000  8.0259e+04  0.00000  4.1770e+04  0.00000  9.2687e+04  0.00000  5.6143e+04  0.00000  3.8949e+04  0.00000  2.1723e+04  0.00000  3.4977e+04  0.00000  1.3649e+04  0.00000  1.5278e+04  0.00000  2.1670e+04  0.00000  2.5216e+04  0.00000  2.3079e+03  0.00000  1.1167e+04  0.00000  1.1406e+04  0.00000  1.5810e+04  0.00000  7.6821e+03  0.00000  5.1344e+03  0.00000  2.5035e+03  0.00000  6.1679e+03  0.00000  1.6876e+03  0.00000  3.2725e+03  0.00000  1.8542e+03  0.00000  1.4585e+03  0.00000  2.6110e+03  0.00000  1.8398e+03  0.00000  1.5898e+03  0.00000  1.3314e+03  0.00000  1.0865e+03  0.00000  7.6651e+02  0.00000  1.7133e+02  0.00000  1.8154e+03  0.00000  3.1534e+02  0.00000  6.7669e+02  0.00000  1.0476e+03  0.00000  3.7785e+01  0.00000  1.1554e+02  0.00000  5.5376e+02  0.00000  9.4441e+02  0.00000  6.4841e+02  0.00000  2.8208e+01  0.00000  1.5080e+02  0.00000  1.3694e+02  0.00000  8.5875e+01  0.00000  3.4631e+02  0.00000  3.2005e+01  0.00000  8.2298e+01  0.00000  3.7172e+01  0.00000  1.1598e+02  0.00000  4.5400e+01  0.00000  6.9096e+01  0.00000  1.9393e+02  0.00000  4.5347e+01  0.00000  8.9242e+01  0.00000  1.1723e+01  0.00000  8.7776e+00  0.00000  7.3354e+01  0.00000  8.1205e+01  0.00000  2.5134e+01  0.00000  3.9139e+00  0.00000  5.9821e+00  0.00000  1.5278e+02  0.00000  8.0241e+01  0.00000  3.3484e+01  0.00000  9.9513e+00  0.00000  1.4417e+01  0.00000  3.8777e+01  0.00000  3.3437e+00  0.00000  1.0370e+01  0.00000  0.0000e+00  0.00000  2.3429e+01  0.00000  5.6768e+00  0.00000  4.1071e+01  0.00000  1.7582e-01  0.00000  6.3384e-01  0.00000  3.3606e+00  0.00000  3.6997e+01  0.00000  4.7085e-01  0.00000  5.1359e+01  0.00000  2.5419e-01  0.00000  1.0232e+01  0.00000  0.0000e+00  0.00000  1.6354e+01  0.00000  1.6550e+00  0.00000  7.8893e+00  0.00000

